# of segments(n)      <R2>(A^2)/n     <R2>(A^2)/nl2      <R2>(A^2)    Count
# =========================================================================
       1            2.373                1.000            2.373          199600
       2            3.325                1.402            6.650          199200
       3            4.565                1.924           13.695          198800
       4            5.639                2.377           22.557          198400
       5            6.658                2.806           33.289          198000
       6            7.576                3.193           45.459          197600
       7            8.422                3.550           58.955          197200
       8            9.192                3.874           73.534          196800
       9            9.897                4.171           89.073          196400
      10           10.541                4.443          105.414          196000
      11           11.132                4.692          122.448          195600
      12           11.672                4.920          140.061          195200
      13           12.167                5.128          158.172          194800
      14           12.621                5.320          176.700          194400
      15           13.039                5.496          195.582          194000
      16           13.423                5.657          214.761          193600
      17           13.776                5.806          234.193          193200
      18           14.102                5.944          253.834          192800
      19           14.403                6.071          273.655          192400
      20           14.681                6.188          293.616          192000
      21           14.938                6.296          313.700          191600
      22           15.176                6.397          333.879          191200
      23           15.398                6.490          354.144          190800
      24           15.603                6.577          374.474          190400
      25           15.794                6.657          394.859          190000
      26           15.973                6.732          415.293          189600
      27           16.139                6.803          435.764          189200
      28           16.295                6.868          456.273          188800
      29           16.442                6.930          476.810          188400
      30           16.579                6.988          497.372          188000
      31           16.708                7.042          517.949          187600
      32           16.829                7.093          538.543          187200
      33           16.943                7.142          559.135          186800
      34           17.051                7.187          579.726          186400
      35           17.152                7.229          600.316          186000
      36           17.247                7.270          620.905          185600
      37           17.338                7.308          641.489          185200
      38           17.423                7.343          662.063          184800
      39           17.503                7.377          682.621          184400
      40           17.579                7.409          703.166          184000
      41           17.651                7.440          723.691          183600
      42           17.719                7.469          744.213          183200
      43           17.784                7.496          764.728          182800
      44           17.846                7.522          785.236          182400
      45           17.905                7.547          805.738          182000
      46           17.962                7.571          826.237          181600
      47           18.015                7.593          846.722          181200
      48           18.067                7.615          867.197          180800
      49           18.115                7.635          887.652          180400
      50           18.162                7.655          908.088          180000
      51           18.206                7.674          928.498          179600
      52           18.248                7.691          948.891          179200
      53           18.288                7.708          969.256          178800
      54           18.326                7.724          989.608          178400
      55           18.363                7.740         1009.943          178000
      56           18.397                7.754         1030.252          177600
      57           18.430                7.768         1050.537          177200
      58           18.462                7.782         1070.811          176800
      59           18.493                7.794         1091.060          176400
      60           18.522                7.807         1111.293          176000
      61           18.549                7.818         1131.506          175600
      62           18.576                7.830         1151.709          175200
      63           18.601                7.840         1171.894          174800
      64           18.626                7.851         1192.068          174400
      65           18.650                7.861         1212.219          174000
      66           18.672                7.870         1232.352          173600
      67           18.694                7.879         1252.469          173200
      68           18.714                7.888         1272.572          172800
      69           18.734                7.896         1292.676          172400
      70           18.754                7.905         1312.764          172000
      71           18.772                7.912         1332.846          171600
      72           18.791                7.920         1352.922          171200
      73           18.808                7.928         1373.005          170800
      74           18.826                7.935         1393.091          170400
      75           18.843                7.942         1413.192          170000
      76           18.859                7.949         1433.304          169600
      77           18.876                7.956         1453.425          169200
      78           18.892                7.963         1473.557          168800
      79           18.908                7.969         1493.702          168400
      80           18.923                7.976         1513.865          168000
      81           18.939                7.982         1534.034          167600
      82           18.954                7.989         1554.203          167200
      83           18.968                7.995         1574.379          166800
      84           18.983                8.001         1594.568          166400
      85           18.997                8.007         1614.761          166000
      86           19.011                8.013         1634.972          165600
      87           19.025                8.019         1655.190          165200
      88           19.039                8.025         1675.410          164800
      89           19.052                8.030         1695.611          164400
      90           19.064                8.035         1715.793          164000
      91           19.077                8.041         1735.968          163600
      92           19.088                8.046         1756.136          163200
      93           19.100                8.050         1776.285          162800
      94           19.111                8.055         1796.429          162400
      95           19.122                8.060         1816.551          162000
      96           19.132                8.064         1836.669          161600
      97           19.142                8.068         1856.759          161200
      98           19.151                8.072         1876.815          160800
      99           19.160                8.076         1896.839          160400
     100           19.168                8.079         1916.844          160000
     101           19.176                8.083         1936.807          159600
     102           19.184                8.086         1956.750          159200
     103           19.191                8.089         1976.656          158800
     104           19.198                8.092         1996.555          158400
     105           19.204                8.094         2016.435          158000
     106           19.210                8.097         2036.290          157600
     107           19.216                8.099         2056.126          157200
     108           19.222                8.102         2075.935          156800
     109           19.227                8.104         2095.717          156400
     110           19.231                8.106         2115.458          156000
     111           19.236                8.108         2135.175          155600
     112           19.240                8.109         2154.854          155200
     113           19.243                8.111         2174.507          154800
     114           19.247                8.112         2194.119          154400
     115           19.250                8.114         2213.703          154000
     116           19.252                8.115         2233.239          153600
     117           19.254                8.115         2252.747          153200
     118           19.256                8.116         2272.235          152800
     119           19.258                8.117         2291.694          152400
     120           19.259                8.118         2311.122          152000
     121           19.261                8.118         2330.523          151600
     122           19.261                8.118         2349.888          151200
     123           19.262                8.119         2369.219          150800
     124           19.262                8.119         2388.515          150400
     125           19.262                8.119         2407.777          150000
     126           19.262                8.119         2426.994          149600
     127           19.261                8.118         2446.193          149200
     128           19.261                8.118         2465.370          148800
     129           19.260                8.118         2484.508          148400
     130           19.259                8.117         2503.616          148000
     131           19.257                8.117         2522.710          147600
     132           19.256                8.116         2541.800          147200
     133           19.255                8.116         2560.872          146800
     134           19.253                8.115         2579.937          146400
     135           19.252                8.114         2598.982          146000
     136           19.250                8.114         2618.041          145600
     137           19.249                8.113         2637.087          145200
     138           19.247                8.113         2656.136          144800
     139           19.246                8.112         2675.195          144400
     140           19.245                8.112         2694.281          144000
     141           19.244                8.111         2713.383          143600
     142           19.243                8.111         2732.479          143200
     143           19.242                8.110         2751.593          142800
     144           19.241                8.110         2770.705          142400
     145           19.240                8.110         2789.839          142000
     146           19.240                8.109         2808.978          141600
     147           19.239                8.109         2828.164          141200
     148           19.239                8.109         2847.377          140800
     149           19.239                8.109         2866.618          140400
     150           19.239                8.109         2885.877          140000
     151           19.240                8.109         2905.171          139600
     152           19.240                8.109         2924.491          139200
     153           19.241                8.110         2943.811          138800
     154           19.241                8.110         2963.124          138400
     155           19.241                8.110         2982.426          138000
     156           19.242                8.110         3001.742          137600
     157           19.242                8.110         3021.060          137200
     158           19.243                8.111         3040.369          136800
     159           19.243                8.111         3059.695          136400
     160           19.244                8.111         3079.026          136000
     161           19.245                8.111         3098.389          135600
     162           19.245                8.112         3117.731          135200
     163           19.246                8.112         3137.114          134800
     164           19.247                8.112         3156.508          134400
     165           19.248                8.113         3175.921          134000
     166           19.249                8.113         3195.365          133600
     167           19.250                8.114         3214.828          133200
     168           19.252                8.114         3234.277          132800
     169           19.253                8.115         3253.736          132400
     170           19.254                8.115         3273.232          132000
     171           19.256                8.116         3292.757          131600
     172           19.257                8.117         3312.285          131200
     173           19.259                8.118         3331.840          130800
     174           19.261                8.118         3351.414          130400
     175           19.263                8.119         3371.012          130000
     176           19.265                8.120         3390.622          129600
     177           19.267                8.121         3410.260          129200
     178           19.269                8.122         3429.928          128800
     179           19.272                8.123         3449.599          128400
     180           19.274                8.124         3469.328          128000
     181           19.277                8.125         3489.072          127600
     182           19.279                8.126         3508.840          127200
     183           19.282                8.127         3528.636          126800
     184           19.285                8.128         3548.424          126400
     185           19.288                8.130         3568.256          126000
     186           19.291                8.131         3588.109          125600
     187           19.294                8.132         3607.982          125200
     188           19.297                8.134         3627.896          124800
     189           19.301                8.135         3647.816          124400
     190           19.304                8.136         3667.783          124000
     191           19.308                8.138         3687.750          123600
     192           19.311                8.139         3707.730          123200
     193           19.315                8.141         3727.707          122800
     194           19.318                8.142         3747.652          122400
     195           19.321                8.144         3767.576          122000
     196           19.324                8.145         3787.443          121600
     197           19.326                8.146         3807.306          121200
     198           19.329                8.147         3827.105          120800
     199           19.331                8.148         3846.891          120400
     200           19.333                8.149         3866.678          120000
     201           19.336                8.150         3886.448          119600
     202           19.338                8.151         3906.208          119200
     203           19.340                8.152         3925.973          118800
     204           19.342                8.152         3945.732          118400
     205           19.344                8.153         3965.456          118000
     206           19.345                8.154         3985.164          117600
     207           19.347                8.155         4004.860          117200
     208           19.349                8.155         4024.560          116800
     209           19.350                8.156         4044.210          116400
     210           19.352                8.157         4063.841          116000
     211           19.353                8.157         4083.436          115600
     212           19.354                8.157         4103.000          115200
     213           19.355                8.158         4122.511          114800
     214           19.355                8.158         4141.991          114400
     215           19.355                8.158         4161.432          114000
     216           19.356                8.158         4180.812          113600
     217           19.356                8.158         4200.152          113200
     218           19.355                8.158         4219.436          112800
     219           19.355                8.158         4238.710          112400
     220           19.354                8.158         4257.966          112000
     221           19.354                8.157         4277.180          111600
     222           19.353                8.157         4296.381          111200
     223           19.352                8.157         4315.539          110800
     224           19.351                8.156         4334.714          110400
     225           19.350                8.156         4353.836          110000
     226           19.350                8.156         4372.992          109600
     227           19.349                8.155         4392.134          109200
     228           19.348                8.155         4411.311          108800
     229           19.347                8.155         4430.468          108400
     230           19.346                8.154         4449.642          108000
     231           19.345                8.154         4468.805          107600
     232           19.345                8.154         4487.948          107200
     233           19.344                8.153         4507.097          106800
     234           19.343                8.153         4526.249          106400
     235           19.342                8.153         4545.414          106000
     236           19.341                8.152         4564.573          105600
     237           19.341                8.152         4583.717          105200
     238           19.340                8.151         4602.827          104800
     239           19.339                8.151         4621.911          104400
     240           19.337                8.151         4640.968          104000
     241           19.336                8.150         4660.012          103600
     242           19.335                8.150         4679.091          103200
     243           19.334                8.149         4698.204          102800
     244           19.333                8.149         4717.307          102400
     245           19.332                8.148         4736.405          102000
     246           19.331                8.148         4755.521          101600
     247           19.331                8.148         4774.644          101200
     248           19.330                8.147         4793.813          100800
     249           19.329                8.147         4813.015          100400
     250           19.329                8.147         4832.319          100000
     251           19.329                8.147         4851.651           99600
     252           19.330                8.147         4871.116           99200
     253           19.330                8.148         4890.615           98800
     254           19.332                8.148         4910.208           98400
     255           19.333                8.149         4929.852           98000
     256           19.334                8.149         4949.511           97600
     257           19.335                8.150         4969.186           97200
     258           19.337                8.150         4988.916           96800
     259           19.338                8.151         5008.652           96400
     260           19.340                8.152         5028.422           96000
     261           19.342                8.152         5048.243           95600
     262           19.344                8.153         5068.081           95200
     263           19.346                8.154         5087.953           94800
     264           19.348                8.155         5107.916           94400
     265           19.351                8.156         5127.910           94000
     266           19.353                8.157         5147.993           93600
     267           19.356                8.158         5168.130           93200
     268           19.360                8.160         5188.351           92800
     269           19.363                8.161         5208.633           92400
     270           19.366                8.163         5228.955           92000
     271           19.370                8.164         5249.330           91600
     272           19.374                8.166         5269.713           91200
     273           19.378                8.167         5290.099           90800
     274           19.381                8.169         5310.436           90400
     275           19.385                8.170         5330.786           90000
     276           19.388                8.172         5351.151           89600
     277           19.392                8.173         5371.508           89200
     278           19.395                8.175         5391.901           88800
     279           19.399                8.176         5412.307           88400
     280           19.403                8.178         5432.750           88000
     281           19.406                8.180         5453.224           87600
     282           19.411                8.181         5473.782           87200
     283           19.415                8.183         5494.329           86800
     284           19.419                8.185         5514.988           86400
     285           19.423                8.187         5535.672           86000
     286           19.428                8.189         5556.372           85600
     287           19.432                8.191         5577.074           85200
     288           19.437                8.192         5597.816           84800
     289           19.441                8.194         5618.563           84400
     290           19.446                8.196         5639.315           84000
     291           19.450                8.198         5660.063           83600
     292           19.455                8.200         5680.798           83200
     293           19.459                8.202         5701.477           82800
     294           19.463                8.203         5722.134           82400
     295           19.467                8.205         5742.765           82000
     296           19.471                8.207         5763.474           81600
     297           19.475                8.209         5784.131           81200
     298           19.479                8.210         5804.756           80800
     299           19.483                8.212         5825.275           80400
     300           19.486                8.213         5845.697           80000
     301           19.489                8.214         5866.076           79600
     302           19.491                8.215         5886.351           79200
     303           19.494                8.216         5906.556           78800
     304           19.496                8.217         5926.700           78400
     305           19.498                8.218         5946.810           78000
     306           19.500                8.219         5966.849           77600
     307           19.501                8.220         5986.832           77200
     308           19.502                8.220         6006.754           76800
     309           19.504                8.221         6026.646           76400
     310           19.505                8.221         6046.452           76000
     311           19.505                8.221         6066.161           75600
     312           19.506                8.221         6085.802           75200
     313           19.506                8.222         6105.394           74800
     314           19.506                8.222         6124.962           74400
     315           19.506                8.222         6144.466           74000
     316           19.506                8.222         6163.981           73600
     317           19.506                8.222         6183.409           73200
     318           19.506                8.222         6202.908           72800
     319           19.506                8.222         6222.411           72400
     320           19.506                8.222         6241.954           72000
     321           19.506                8.222         6261.585           71600
     322           19.507                8.222         6281.169           71200
     323           19.507                8.222         6300.874           70800
     324           19.508                8.222         6320.593           70400
     325           19.509                8.223         6340.354           70000
     326           19.510                8.223         6360.200           69600
     327           19.511                8.224         6380.116           69200
     328           19.513                8.224         6400.101           68800
     329           19.514                8.225         6420.151           68400
     330           19.516                8.226         6440.225           68000
     331           19.517                8.226         6460.284           67600
     332           19.519                8.227         6480.319           67200
     333           19.520                8.228         6500.295           66800
     334           19.522                8.228         6520.190           66400
     335           19.522                8.229         6540.030           66000
     336           19.523                8.229         6559.873           65600
     337           19.524                8.229         6579.709           65200
     338           19.525                8.230         6599.431           64800
     339           19.525                8.230         6619.072           64400
     340           19.525                8.230         6638.646           64000
     341           19.525                8.230         6658.175           63600
     342           19.525                8.230         6677.667           63200
     343           19.525                8.230         6697.063           62800
     344           19.525                8.229         6716.437           62400
     345           19.524                8.229         6735.816           62000
     346           19.524                8.229         6755.155           61600
     347           19.523                8.229         6774.464           61200
     348           19.522                8.229         6793.826           60800
     349           19.522                8.228         6813.197           60400
     350           19.522                8.228         6832.584           60000
     351           19.522                8.228         6852.066           59600
     352           19.521                8.228         6871.557           59200
     353           19.522                8.228         6891.173           58800
     354           19.522                8.228         6910.789           58400
     355           19.522                8.228         6930.449           58000
     356           19.523                8.229         6950.251           57600
     357           19.524                8.229         6970.128           57200
     358           19.525                8.230         6990.036           56800
     359           19.527                8.230         7010.031           56400
     360           19.528                8.231         7030.052           56000
     361           19.529                8.231         7050.087           55600
     362           19.531                8.232         7070.107           55200
     363           19.532                8.233         7090.245           54800
     364           19.534                8.233         7110.422           54400
     365           19.536                8.234         7130.572           54000
     366           19.538                8.235         7150.754           53600
     367           19.539                8.236         7170.839           53200
     368           19.541                8.236         7190.994           52800
     369           19.543                8.237         7211.238           52400
     370           19.544                8.238         7231.449           52000
     371           19.546                8.239         7251.699           51600
     372           19.549                8.240         7272.088           51200
     373           19.551                8.241         7292.558           50800
     374           19.554                8.242         7313.198           50400
     375           19.557                8.243         7333.848           50000
     376           19.560                8.244         7354.651           49600
     377           19.564                8.246         7375.475           49200
     378           19.567                8.247         7396.339           48800
     379           19.570                8.249         7417.115           48400
     380           19.573                8.250         7437.893           48000
     381           19.576                8.251         7458.607           47600
     382           19.579                8.252         7479.251           47200
     383           19.582                8.254         7499.974           46800
     384           19.585                8.255         7520.724           46400
     385           19.588                8.256         7541.394           46000
     386           19.591                8.257         7562.123           45600
     387           19.594                8.259         7582.747           45200
     388           19.596                8.260         7603.276           44800
     389           19.599                8.261         7623.820           44400
     390           19.601                8.261         7644.226           44000
     391           19.603                8.262         7664.636           43600
     392           19.605                8.263         7684.971           43200
     393           19.606                8.264         7705.233           42800
     394           19.608                8.265         7725.494           42400
     395           19.610                8.265         7745.846           42000
     396           19.612                8.266         7766.267           41600
     397           19.614                8.267         7786.807           41200
     398           19.617                8.268         7807.399           40800
     399           19.620                8.269         7828.209           40400
     400           19.623                8.271         7849.045           40000
     401           19.626                8.272         7870.049           39600
     402           19.629                8.274         7890.929           39200
     403           19.633                8.275         7911.921           38800
     404           19.636                8.276         7932.915           38400
     405           19.639                8.278         7953.955           38000
     406           19.643                8.279         7975.131           37600
     407           19.646                8.281         7996.013           37200
     408           19.649                8.282         8016.974           36800
     409           19.653                8.283         8037.975           36400
     410           19.657                8.285         8059.217           36000
     411           19.661                8.287         8080.597           35600
     412           19.665                8.289         8102.162           35200
     413           19.670                8.291         8123.853           34800
     414           19.675                8.293         8145.560           34400
     415           19.680                8.295         8167.164           34000
     416           19.684                8.297         8188.738           33600
     417           19.689                8.299         8210.301           33200
     418           19.694                8.301         8231.893           32800
     419           19.698                8.303         8253.573           32400
     420           19.703                8.305         8275.187           32000
     421           19.708                8.307         8297.022           31600
     422           19.713                8.309         8318.933           31200
     423           19.719                8.311         8340.999           30800
     424           19.724                8.314         8363.165           30400
     425           19.731                8.316         8385.495           30000
     426           19.737                8.319         8407.875           29600
     427           19.743                8.322         8430.285           29200
     428           19.749                8.324         8452.735           28800
     429           19.756                8.327         8475.221           28400
     430           19.763                8.330         8497.912           28000
     431           19.769                8.333         8520.567           27600
     432           19.776                8.335         8543.291           27200
     433           19.783                8.338         8566.010           26800
     434           19.790                8.341         8589.015           26400
     435           19.798                8.345         8612.064           26000
     436           19.806                8.348         8635.205           25600
     437           19.813                8.351         8658.371           25200
     438           19.821                8.354         8681.551           24800
     439           19.829                8.358         8704.779           24400
     440           19.837                8.361         8728.100           24000
     441           19.845                8.364         8751.519           23600
     442           19.853                8.368         8774.899           23200
     443           19.860                8.371         8798.011           22800
     444           19.867                8.374         8821.022           22400
     445           19.874                8.377         8843.892           22000
     446           19.880                8.379         8866.511           21600
     447           19.885                8.381         8888.552           21200
     448           19.890                8.383         8910.743           20800
     449           19.894                8.385         8932.488           20400
     450           19.898                8.387         8954.045           20000
     451           19.901                8.388         8975.462           19600
     452           19.905                8.390         8996.895           19200
     453           19.908                8.391         9018.184           18800
     454           19.910                8.392         9039.350           18400
     455           19.913                8.393         9060.373           18000
     456           19.916                8.394         9081.473           17600
     457           19.917                8.395         9102.259           17200
     458           19.919                8.396         9122.754           16800
     459           19.920                8.396         9143.450           16400
     460           19.922                8.397         9163.899           16000
     461           19.923                8.397         9184.274           15600
     462           19.923                8.397         9204.427           15200
     463           19.923                8.397         9224.480           14800
     464           19.923                8.397         9244.350           14400
     465           19.922                8.397         9263.876           14000
     466           19.921                8.396         9283.042           13600
     467           19.917                8.395         9301.308           13200
     468           19.913                8.393         9319.296           12800
     469           19.908                8.391         9336.798           12400
     470           19.902                8.388         9353.756           12000
     471           19.896                8.386         9370.811           11600
     472           19.889                8.383         9387.395           11200
     473           19.882                8.380         9403.981           10800
     474           19.874                8.377         9420.467           10400
     475           19.866                8.373         9436.469           10000
     476           19.858                8.370         9452.215            9600
     477           19.849                8.366         9467.778            9200
     478           19.839                8.362         9482.890            8800
     479           19.829                8.358         9498.012            8400
     480           19.819                8.354         9513.205            8000
     481           19.810                8.350         9528.711            7600
     482           19.801                8.346         9544.177            7200
     483           19.793                8.342         9559.826            6800
     484           19.784                8.339         9575.360            6400
     485           19.775                8.335         9590.827            6000
     486           19.765                8.331         9605.798            5600
     487           19.756                8.327         9621.010            5200
     488           19.745                8.323         9635.797            4800
     489           19.735                8.318         9650.490            4400
     490           19.722                8.313         9663.793            4000
     491           19.708                8.307         9676.608            3600
     492           19.692                8.300         9688.243            3200
     493           19.674                8.292         9699.388            2800
     494           19.658                8.285         9710.853            2400
     495           19.640                8.278         9721.896            2000
     496           19.630                8.274         9736.623            1600
     497           19.621                8.270         9751.760            1200
     498           19.611                8.266         9766.187             800
     499           19.601                8.262         9781.123             400
