# of segments(n)      <R2>(A^2)/n     <R2>(A^2)/nl2      <R2>(A^2)    Count
# =========================================================================
       1            2.383                1.000            2.383          998499
       2            3.338                1.401            6.676          996498
       3            4.706                1.975           14.117          994497
       4            5.863                2.461           23.452          992496
       5            7.003                2.939           35.015          990495
       6            8.035                3.372           48.209          988494
       7            9.007                3.780           63.050          986493
       8            9.902                4.156           79.217          984492
       9           10.737                4.506           96.629          982491
      10           11.509                4.830          115.087          980490
      11           12.227                5.132          134.492          978489
      12           12.892                5.411          154.709          976488
      13           13.511                5.671          175.646          974487
      14           14.086                5.912          197.202          972486
      15           14.620                6.136          219.296          970485
      16           15.116                6.344          241.854          968484
      17           15.577                6.538          264.809          966483
      18           16.006                6.718          288.107          964482
      19           16.405                6.885          311.693          962481
      20           16.776                7.041          335.523          960480
      21           17.122                7.186          359.558          958479
      22           17.444                7.321          383.759          956478
      23           17.743                7.447          408.096          954477
      24           18.022                7.564          432.535          952476
      25           18.282                7.673          457.054          950475
      26           18.524                7.775          481.629          948474
      27           18.750                7.869          506.240          946473
      28           18.960                7.958          530.872          944472
      29           19.156                8.040          555.510          942471
      30           19.338                8.116          580.137          940470
      31           19.508                8.188          604.743          938469
      32           19.666                8.254          629.317          936468
      33           19.814                8.316          653.850          934467
      34           19.951                8.374          678.329          932466
      35           20.079                8.427          702.752          930465
      36           20.197                8.477          727.106          928464
      37           20.308                8.523          751.389          926463
      38           20.410                8.566          775.596          924462
      39           20.506                8.606          799.719          922461
      40           20.594                8.644          823.759          920460
      41           20.676                8.678          847.710          918459
      42           20.752                8.710          871.575          916458
      43           20.822                8.739          895.346          914457
      44           20.887                8.766          919.022          912456
      45           20.947                8.792          942.598          910455
      46           21.002                8.815          966.078          908454
      47           21.052                8.836          989.457          906453
      48           21.099                8.855         1012.738          904452
      49           21.141                8.873         1035.920          902451
      50           21.180                8.889         1059.000          900450
      51           21.215                8.904         1081.987          898449
      52           21.248                8.918         1104.881          896448
      53           21.277                8.930         1127.676          894447
      54           21.303                8.941         1150.379          892446
      55           21.327                8.951         1172.984          890445
      56           21.348                8.960         1195.496          888444
      57           21.367                8.968         1217.911          886443
      58           21.383                8.975         1240.235          884442
      59           21.398                8.981         1262.456          882441
      60           21.410                8.986         1284.587          880440
      61           21.420                8.990         1306.617          878439
      62           21.428                8.994         1328.551          876438
      63           21.435                8.996         1350.387          874437
      64           21.439                8.998         1372.123          872436
      65           21.442                9.000         1393.757          870435
      66           21.444                9.000         1415.297          868434
      67           21.444                9.000         1436.732          866433
      68           21.442                9.000         1458.073          864432
      69           21.439                8.998         1479.320          862431
      70           21.435                8.997         1500.478          860430
      71           21.430                8.994         1521.542          858429
      72           21.424                8.992         1542.521          856428
      73           21.417                8.989         1563.422          854427
      74           21.409                8.985         1584.242          852426
      75           21.400                8.982         1604.985          850425
      76           21.390                8.978         1625.652          848424
      77           21.380                8.973         1646.245          846423
      78           21.369                8.969         1666.764          844422
      79           21.357                8.964         1687.213          842421
      80           21.345                8.959         1707.584          840420
      81           21.332                8.953         1727.882          838419
      82           21.318                8.948         1748.101          836418
      83           21.304                8.942         1768.250          834417
      84           21.290                8.935         1788.321          832416
      85           21.274                8.929         1808.315          830415
      86           21.259                8.922         1828.233          828414
      87           21.242                8.916         1848.080          826413
      88           21.226                8.909         1867.853          824412
      89           21.209                8.901         1887.557          822411
      90           21.191                8.894         1907.198          820410
      91           21.173                8.887         1926.773          818409
      92           21.155                8.879         1946.283          816408
      93           21.137                8.871         1965.722          814407
      94           21.118                8.863         1985.097          812406
      95           21.099                8.855         2004.408          810405
      96           21.080                8.847         2023.655          808404
      97           21.060                8.839         2042.846          806403
      98           21.041                8.831         2061.978          804402
      99           21.021                8.823         2081.060          802401
     100           21.001                8.814         2100.089          800400
     101           20.981                8.806         2119.071          798399
     102           20.961                8.798         2138.019          796398
     103           20.941                8.789         2156.924          794397
     104           20.921                8.781         2175.799          792396
     105           20.901                8.772         2194.634          790395
     106           20.881                8.764         2213.438          788394
     107           20.862                8.756         2232.208          786393
     108           20.842                8.748         2250.957          784392
     109           20.823                8.740         2269.681          782391
     110           20.803                8.731         2288.375          780390
     111           20.784                8.723         2307.035          778389
     112           20.765                8.715         2325.668          776388
     113           20.746                8.707         2344.272          774387
     114           20.727                8.699         2362.848          772386
     115           20.708                8.691         2381.389          770385
     116           20.689                8.683         2399.897          768384
     117           20.670                8.675         2418.381          766383
     118           20.651                8.668         2436.833          764382
     119           20.632                8.660         2455.265          762381
     120           20.614                8.652         2473.679          760380
     121           20.596                8.644         2492.074          758379
     122           20.577                8.637         2510.453          756378
     123           20.559                8.629         2528.813          754377
     124           20.542                8.621         2547.146          752376
     125           20.524                8.614         2565.463          750375
     126           20.506                8.607         2583.759          748374
     127           20.488                8.599         2602.022          746373
     128           20.471                8.592         2620.256          744372
     129           20.453                8.584         2638.453          742371
     130           20.436                8.577         2656.623          740370
     131           20.418                8.570         2674.758          738369
     132           20.400                8.562         2692.862          736368
     133           20.383                8.555         2710.923          734367
     134           20.365                8.548         2728.952          732366
     135           20.348                8.540         2746.943          730365
     136           20.330                8.533         2764.903          728364
     137           20.313                8.525         2782.830          726363
     138           20.295                8.518         2800.723          724362
     139           20.278                8.511         2818.583          722361
     140           20.260                8.503         2836.406          720360
     141           20.243                8.496         2854.207          718359
     142           20.225                8.489         2871.971          716358
     143           20.208                8.481         2889.718          714357
     144           20.190                8.474         2907.430          712356
     145           20.173                8.467         2925.111          710355
     146           20.156                8.460         2942.756          708354
     147           20.139                8.452         2960.380          706353
     148           20.121                8.445         2977.974          704352
     149           20.104                8.438         2995.548          702351
     150           20.087                8.431         3013.097          700350
     151           20.070                8.424         3030.616          698349
     152           20.053                8.417         3048.116          696348
     153           20.037                8.410         3065.594          694347
     154           20.020                8.403         3083.042          692346
     155           20.003                8.395         3100.467          690345
     156           19.986                8.388         3117.868          688344
     157           19.970                8.382         3135.245          686343
     158           19.953                8.375         3152.592          684342
     159           19.937                8.368         3169.916          682341
     160           19.920                8.361         3187.217          680340
     161           19.904                8.354         3204.506          678339
     162           19.887                8.347         3221.775          676338
     163           19.871                8.340         3239.031          674337
     164           19.855                8.333         3256.270          672336
     165           19.839                8.327         3273.490          670335
     166           19.823                8.320         3290.690          668334
     167           19.808                8.313         3307.865          666333
     168           19.792                8.307         3325.020          664332
     169           19.776                8.300         3342.157          662331
     170           19.760                8.294         3359.264          660330
     171           19.745                8.287         3376.359          658329
     172           19.729                8.281         3393.412          656328
     173           19.714                8.274         3410.450          654327
     174           19.698                8.267         3427.453          652326
     175           19.682                8.261         3444.432          650325
     176           19.667                8.254         3461.375          648324
     177           19.651                8.248         3478.294          646323
     178           19.636                8.241         3495.178          644322
     179           19.620                8.235         3512.037          642321
     180           19.605                8.228         3528.866          640320
     181           19.589                8.222         3545.670          638319
     182           19.574                8.215         3562.435          636318
     183           19.558                8.209         3579.179          634317
     184           19.543                8.202         3595.893          632316
     185           19.528                8.196         3612.589          630315
     186           19.512                8.189         3629.263          628314
     187           19.497                8.183         3645.919          626313
     188           19.482                8.177         3662.539          624312
     189           19.466                8.170         3679.148          622311
     190           19.451                8.164         3695.751          620310
     191           19.436                8.158         3712.339          618309
     192           19.421                8.151         3728.899          616308
     193           19.406                8.145         3745.451          614307
     194           19.392                8.139         3761.983          612306
     195           19.377                8.133         3778.519          610305
     196           19.363                8.127         3795.066          608304
     197           19.348                8.121         3811.609          606303
     198           19.334                8.115         3828.149          604302
     199           19.320                8.109         3844.694          602301
     200           19.306                8.103         3861.234          600300
     201           19.292                8.097         3877.779          598299
     202           19.279                8.092         3894.307          596298
     203           19.265                8.086         3910.832          594297
     204           19.252                8.080         3927.348          592296
     205           19.238                8.075         3943.854          590295
     206           19.225                8.069         3960.342          588294
     207           19.212                8.063         3976.822          586293
     208           19.198                8.058         3993.286          584292
     209           19.185                8.052         4009.749          582291
     210           19.172                8.047         4026.198          580290
     211           19.159                8.041         4042.639          578289
     212           19.147                8.036         4059.076          576288
     213           19.134                8.031         4075.501          574287
     214           19.121                8.025         4091.919          572286
     215           19.109                8.020         4108.349          570285
     216           19.096                8.015         4124.778          568284
     217           19.084                8.010         4141.201          566283
     218           19.072                8.005         4157.624          564282
     219           19.060                8.000         4174.040          562281
     220           19.048                7.994         4190.465          560280
     221           19.036                7.989         4206.875          558279
     222           19.024                7.985         4223.303          556278
     223           19.012                7.980         4239.722          554277
     224           19.001                7.975         4256.140          552276
     225           18.989                7.970         4272.565          550275
     226           18.978                7.965         4288.998          548274
     227           18.967                7.961         4305.463          546273
     228           18.956                7.956         4321.936          544272
     229           18.945                7.952         4338.448          542271
     230           18.935                7.947         4354.962          540270
     231           18.924                7.943         4371.496          538269
     232           18.914                7.938         4388.034          536268
     233           18.904                7.934         4404.587          534267
     234           18.894                7.930         4421.162          532266
     235           18.884                7.926         4437.755          530265
     236           18.874                7.922         4454.373          528264
     237           18.865                7.918         4471.010          526263
     238           18.856                7.914         4487.667          524262
     239           18.847                7.910         4504.350          522261
     240           18.838                7.906         4521.052          520260
     241           18.829                7.903         4537.773          518259
     242           18.820                7.899         4554.513          516258
     243           18.812                7.896         4571.284          514257
     244           18.804                7.892         4588.081          512256
     245           18.795                7.889         4604.890          510255
     246           18.787                7.885         4621.720          508254
     247           18.780                7.882         4638.546          506253
     248           18.772                7.879         4655.405          504252
     249           18.764                7.876         4672.262          502251
     250           18.757                7.872         4689.146          500250
     251           18.749                7.869         4706.039          498249
     252           18.742                7.866         4722.967          496248
     253           18.735                7.863         4739.885          494247
     254           18.728                7.860         4756.823          492246
     255           18.721                7.857         4773.768          490245
     256           18.714                7.854         4790.714          488244
     257           18.707                7.852         4807.686          486243
     258           18.700                7.849         4824.635          484242
     259           18.693                7.846         4841.600          482241
     260           18.687                7.843         4858.550          480240
     261           18.680                7.840         4875.509          478239
     262           18.674                7.837         4892.459          476238
     263           18.667                7.835         4909.403          474237
     264           18.660                7.832         4926.354          472236
     265           18.654                7.829         4943.303          470235
     266           18.648                7.827         4960.243          468234
     267           18.641                7.824         4977.214          466233
     268           18.635                7.821         4994.174          464232
     269           18.629                7.819         5011.173          462231
     270           18.623                7.816         5028.166          460230
     271           18.617                7.814         5045.170          458229
     272           18.611                7.811         5062.164          456228
     273           18.605                7.809         5079.172          454227
     274           18.599                7.806         5096.170          452226
     275           18.593                7.804         5113.183          450225
     276           18.588                7.801         5130.181          448224
     277           18.582                7.799         5147.190          446223
     278           18.576                7.797         5164.190          444222
     279           18.571                7.794         5181.213          442221
     280           18.565                7.792         5198.236          440220
     281           18.560                7.790         5215.288          438219
     282           18.554                7.788         5232.353          436218
     283           18.549                7.785         5249.454          434217
     284           18.544                7.783         5266.587          432216
     285           18.539                7.781         5283.720          430215
     286           18.535                7.779         5300.896          428214
     287           18.530                7.777         5318.077          426213
     288           18.525                7.775         5335.285          424212
     289           18.521                7.773         5352.513          422211
     290           18.516                7.772         5369.768          420210
     291           18.512                7.770         5387.057          418209
     292           18.508                7.768         5404.368          416208
     293           18.504                7.766         5421.701          414207
     294           18.500                7.765         5439.047          412206
     295           18.496                7.763         5456.402          410205
     296           18.492                7.761         5473.762          408204
     297           18.489                7.760         5491.120          406203
     298           18.485                7.758         5508.499          404202
     299           18.481                7.757         5525.903          402201
     300           18.478                7.755         5543.305          400200
     301           18.474                7.754         5560.720          398199
     302           18.471                7.752         5578.120          396198
     303           18.467                7.751         5595.547          394197
     304           18.464                7.749         5612.982          392196
     305           18.460                7.748         5630.445          390195
     306           18.457                7.747         5647.916          388194
     307           18.454                7.745         5665.388          386193
     308           18.451                7.744         5682.866          384192
     309           18.448                7.743         5700.323          382191
     310           18.444                7.741         5717.773          380190
     311           18.441                7.740         5735.209          378189
     312           18.438                7.739         5752.637          376188
     313           18.435                7.737         5770.053          374187
     314           18.431                7.736         5787.489          372186
     315           18.428                7.735         5804.895          370185
     316           18.425                7.733         5822.310          368184
     317           18.422                7.732         5839.714          366183
     318           18.419                7.731         5857.153          364182
     319           18.416                7.729         5874.594          362181
     320           18.413                7.728         5892.087          360180
     321           18.410                7.727         5909.621          358179
     322           18.407                7.726         5927.182          356178
     323           18.405                7.725         5944.799          354177
     324           18.403                7.724         5962.417          352176
     325           18.400                7.723         5980.083          350175
     326           18.398                7.722         5997.757          348174
     327           18.396                7.721         6015.474          346173
     328           18.394                7.720         6033.190          344172
     329           18.392                7.719         6050.943          342171
     330           18.390                7.719         6068.738          340170
     331           18.388                7.718         6086.586          338169
     332           18.387                7.717         6104.486          336168
     333           18.386                7.717         6122.432          334167
     334           18.384                7.716         6140.401          332166
     335           18.383                7.716         6158.429          330165
     336           18.382                7.715         6176.464          328164
     337           18.381                7.715         6194.508          326163
     338           18.380                7.714         6212.576          324162
     339           18.379                7.714         6230.612          322161
     340           18.378                7.714         6248.654          320160
     341           18.377                7.713         6266.676          318159
     342           18.376                7.713         6284.701          316158
     343           18.375                7.712         6302.761          314157
     344           18.375                7.712         6320.836          312156
     345           18.374                7.712         6338.944          310155
     346           18.373                7.711         6357.094          308154
     347           18.373                7.711         6375.299          306153
     348           18.372                7.711         6393.482          304152
     349           18.372                7.711         6411.732          302151
     350           18.371                7.711         6429.944          300150
     351           18.371                7.710         6448.186          298149
     352           18.370                7.710         6466.416          296148
     353           18.370                7.710         6484.681          294147
     354           18.370                7.710         6502.948          292146
     355           18.370                7.710         6521.210          290145
     356           18.369                7.710         6539.539          288144
     357           18.370                7.710         6557.914          286143
     358           18.370                7.710         6576.397          284142
     359           18.370                7.710         6594.894          282141
     360           18.371                7.710         6613.434          280140
     361           18.371                7.711         6632.026          278139
     362           18.372                7.711         6650.638          276138
     363           18.373                7.711         6669.291          274137
     364           18.374                7.712         6687.959          272136
     365           18.374                7.712         6706.654          270135
     366           18.375                7.712         6725.353          268134
     367           18.376                7.713         6744.064          266133
     368           18.377                7.713         6762.797          264132
     369           18.378                7.713         6781.507          262131
     370           18.379                7.714         6800.251          260130
     371           18.380                7.714         6819.010          258129
     372           18.381                7.715         6837.738          256128
     373           18.382                7.715         6856.483          254127
     374           18.383                7.716         6875.246          252126
     375           18.384                7.716         6893.995          250125
     376           18.385                7.716         6912.768          248124
     377           18.386                7.717         6931.563          246123
     378           18.387                7.717         6950.413          244122
     379           18.389                7.718         6969.280          242121
     380           18.390                7.718         6988.198          240120
     381           18.391                7.719         7007.137          238119
     382           18.393                7.720         7026.069          236118
     383           18.394                7.720         7045.018          234117
     384           18.396                7.721         7063.955          232116
     385           18.397                7.722         7082.918          230115
     386           18.399                7.722         7101.924          228114
     387           18.400                7.723         7120.903          226113
     388           18.402                7.723         7139.944          224112
     389           18.404                7.724         7158.981          222111
     390           18.405                7.725         7178.055          220110
     391           18.407                7.726         7197.166          218109
     392           18.409                7.726         7216.334          216108
     393           18.411                7.727         7235.522          214107
     394           18.413                7.728         7254.718          212106
     395           18.415                7.729         7273.898          210105
     396           18.417                7.730         7293.031          208104
     397           18.419                7.730         7312.169          206103
     398           18.420                7.731         7331.291          204102
     399           18.422                7.732         7350.409          202101
     400           18.424                7.733         7369.564          200100
     401           18.426                7.734         7388.771          198099
     402           18.428                7.734         7408.007          196098
     403           18.430                7.735         7427.287          194097
     404           18.432                7.736         7446.588          192096
     405           18.434                7.737         7465.915          190095
     406           18.437                7.738         7485.272          188094
     407           18.439                7.739         7504.682          186093
     408           18.442                7.740         7524.154          184092
     409           18.444                7.741         7543.630          182091
     410           18.447                7.742         7563.129          180090
     411           18.449                7.743         7582.586          178089
     412           18.452                7.744         7602.030          176088
     413           18.454                7.745         7621.448          174087
     414           18.456                7.746         7640.848          172086
     415           18.459                7.747         7660.302          170085
     416           18.461                7.748         7679.746          168084
     417           18.463                7.749         7699.266          166083
     418           18.466                7.750         7718.787          164082
     419           18.469                7.751         7738.332          162081
     420           18.471                7.753         7757.924          160080
     421           18.474                7.754         7777.569          158079
     422           18.477                7.755         7797.321          156078
     423           18.480                7.756         7817.146          154077
     424           18.484                7.758         7837.032          152076
     425           18.487                7.759         7856.903          150075
     426           18.490                7.761         7876.839          148074
     427           18.494                7.762         7896.773          146073
     428           18.497                7.763         7916.757          144072
     429           18.501                7.765         7936.868          142071
     430           18.505                7.767         7957.098          140070
     431           18.509                7.768         7977.414          138069
     432           18.514                7.770         7997.884          136068
     433           18.518                7.772         8018.440          134067
     434           18.523                7.774         8039.138          132066
     435           18.529                7.777         8059.929          130065
     436           18.534                7.779         8080.877          128064
     437           18.540                7.781         8101.915          126063
     438           18.546                7.784         8123.041          124062
     439           18.552                7.786         8144.280          122061
     440           18.558                7.789         8165.568          120060
     441           18.564                7.792         8186.883          118059
     442           18.571                7.794         8208.274          116058
     443           18.577                7.797         8229.625          114057
     444           18.583                7.800         8251.049          112056
     445           18.590                7.802         8272.483          110055
     446           18.596                7.805         8293.958          108054
     447           18.603                7.808         8315.363          106053
     448           18.609                7.810         8336.813          104052
     449           18.615                7.813         8358.211          102051
     450           18.621                7.816         8379.651          100050
     451           18.628                7.818         8401.076           98049
     452           18.634                7.821         8422.475           96048
     453           18.640                7.823         8443.869           94047
     454           18.646                7.826         8465.344           92046
     455           18.652                7.829         8486.826           90045
     456           18.659                7.831         8508.419           88044
     457           18.665                7.834         8530.012           86043
     458           18.672                7.837         8551.840           84042
     459           18.679                7.840         8573.703           82041
     460           18.686                7.843         8595.663           80040
     461           18.693                7.846         8617.686           78039
     462           18.701                7.849         8639.877           76038
     463           18.708                7.852         8662.025           74037
     464           18.716                7.855         8684.317           72036
     465           18.724                7.859         8706.770           70035
     466           18.733                7.862         8729.439           68034
     467           18.741                7.866         8752.231           66033
     468           18.751                7.870         8775.328           64032
     469           18.761                7.874         8798.744           62031
     470           18.771                7.878         8822.379           60030
     471           18.782                7.883         8846.142           58029
     472           18.793                7.887         8870.062           56028
     473           18.803                7.892         8893.820           54027
     474           18.814                7.896         8917.647           52026
     475           18.825                7.901         8941.679           50025
     476           18.836                7.906         8965.745           48024
     477           18.847                7.910         8989.889           46023
     478           18.857                7.915         9013.829           44022
     479           18.868                7.919         9037.797           42021
     480           18.879                7.924         9061.832           40020
     481           18.890                7.928         9086.100           38019
     482           18.901                7.933         9110.437           36018
     483           18.913                7.938         9134.868           34017
     484           18.925                7.943         9159.543           32016
     485           18.937                7.948         9184.344           30015
     486           18.950                7.954         9209.918           28014
     487           18.964                7.960         9235.592           26013
     488           18.979                7.966         9261.611           24012
     489           18.994                7.972         9288.100           22011
     490           19.010                7.979         9315.017           20010
     491           19.027                7.986         9342.436           18009
     492           19.043                7.993         9369.364           16008
     493           19.059                7.999         9396.325           14007
     494           19.076                8.006         9423.390           12006
     495           19.093                8.013         9450.899           10005
     496           19.108                8.020         9477.510            8004
     497           19.122                8.026         9503.403            6003
     498           19.136                8.032         9529.751            4002
     499           19.145                8.036         9553.575            2001
